# Binding energies of docked conformations, attached to ligand center of mass
# Box Cluster      Center_of_mass(x,y,z)       BindingEnergy    Center_of_geometry(x,y,z)
  1   1        -1.557       80.158       114.420       -5.000       -1.597       79.792        114.190
  1   2        -5.669       79.234       116.565       -5.100       -5.632       79.624        116.791
  1   3        -2.364       77.112       114.935       -4.800       -2.049       77.249        115.262
  1   4        -2.603       79.308       114.789       -4.600       -2.392       78.979        114.618
  1   5        -2.819       76.991       115.804       -5.000       -2.397       76.907        115.888
  1   6        -2.400       80.392       114.430       -4.900       -2.258       80.015        114.321
  1   7        -5.794       77.385       116.633       -4.800       -5.622       77.764        116.830
  1   8        -2.244       78.537       114.644       -5.000       -2.033       78.435        114.246
  1   9        -6.824       77.380       117.111       -4.900       -6.871       77.766        117.320
  1   10        -3.101       77.342       114.338       -5.500       -2.774       77.298        114.601
  1   11        -2.685       80.100       114.941       -4.800       -2.493       79.730        114.810
  1   12        -2.529       78.691       115.126       -5.000       -2.274       78.410        114.934
  1   13        -6.588       77.872       117.173       -5.000       -6.200       78.103        117.165
  1   14        -4.732       78.640       116.437       -5.200       -5.095       78.617        116.717
  1   15        -2.878       79.670       115.062       -5.200       -2.732       79.304        114.866
  1   16        -2.438       79.909       114.771       -4.900       -2.304       79.552        114.599
  1   17        -5.007       75.596       115.919       -5.300       -4.593       75.675        115.948
  1   18        -3.146       78.894       114.571       -4.800       -3.007       78.605        114.240
  1   19        -2.853       79.693       114.304       -5.100       -2.741       79.319        114.136
  1   20        -3.059       79.349       115.425       -5.000       -2.843       78.993        115.254
  1   21        -3.046       79.668       114.472       -5.000       -2.908       79.313        114.291
  1   22        -3.176       78.656       115.138       -4.800       -2.937       78.400        114.855
  1   23        -2.503       80.045       113.967       -5.600       -2.378       79.695        113.763
  1   24        -3.305       77.551       115.835       -5.100       -2.896       77.618        115.701
  1   25        -2.754       79.599       114.452       -5.000       -2.605       79.246        114.278
  1   26        -2.863       79.539       115.179       -5.700       -2.675       79.195        114.995
  1   27        -2.432       79.377       115.079       -5.700       -2.260       79.022        114.907
  1   28        -3.375       77.872       116.244       -4.900       -3.143       77.657        115.951
  1   29        -5.395       76.278       116.657       -5.200       -5.258       76.171        116.259
  1   30        -2.864       78.756       115.689       -4.800       -2.571       78.434        115.669
  1   31        -2.573       76.999       114.969       -4.900       -2.233       77.121        115.290
  1   32        -5.543       77.506       117.067       -5.100       -5.123       77.535        117.112
  1   33        -3.154       77.383       115.688       -4.600       -2.753       77.131        115.692
  1   34        -6.517       77.095       117.025       -5.400       -6.124       77.308        117.100
  1   35        -6.314       78.179       116.757       -5.400       -6.085       78.578        116.888
  1   36        -1.818       80.640       113.980       -5.800       -1.651       80.361        113.664
  1   37        -5.214       77.942       116.543       -4.900       -4.791       78.128        116.501
  1   38        -3.209       76.775       115.709       -5.300       -2.802       76.667        115.794
  1   39        -2.185       79.814       114.938       -5.400       -2.100       79.534        114.610
  1   40        -1.694       80.559       113.925       -5.200       -1.486       80.279        113.599
  1   41        -2.792       78.186       115.172       -4.800       -2.520       77.857        115.085
  1   42        -2.756       76.661       115.942       -5.000       -2.473       76.920        115.733
  1   43        -3.110       78.032       115.142       -4.800       -2.851       77.733        114.986
  1   44        -2.307       79.802       114.192       -5.000       -2.236       79.419        114.010
  1   45        -2.627       80.161       114.615       -5.200       -2.480       79.798        114.452
  1   46        -2.736       79.400       114.096       -5.600       -2.646       79.050        113.870
  1   47        -2.861       78.160       114.764       -5.300       -2.567       77.869        114.519
  1   48        -4.479       78.152       117.019       -4.900       -4.190       78.408        117.286
  1   49        -2.370       76.942       114.806       -4.900       -2.000       76.659        114.677
  1   50        -2.636       76.298       115.740       -4.900       -2.311       76.610        115.590
  1   51        -2.165       76.145       115.731       -5.300       -1.855       76.475        115.621
  1   52        -2.768       76.930       115.191       -5.000       -2.371       76.816        115.281
  1   53        -3.155       76.538       114.261       -5.800       -2.824       76.496        114.515
  1   54        -2.666       77.978       114.986       -5.700       -2.324       77.744        114.896
  1   55        -2.614       77.910       114.273       -5.800       -2.250       77.933        114.580
  1   56        -2.706       77.115       115.582       -5.000       -2.302       76.886        115.553
  1   57        -5.391       77.636       117.356       -5.200       -4.967       77.704        117.378
  1   58        -1.958       76.707       115.626       -5.200       -1.776       77.046        115.469
  1   59        -2.836       77.155       115.391       -5.200       -2.412       76.953        115.392
  1   60        -4.258       76.760       117.211       -5.200       -4.257       76.576        116.765
  1   61        -2.644       76.949       114.705       -5.100       -2.330       77.227        114.908
  1   62        -2.556       76.615       115.658       -5.500       -2.266       76.946        115.496
  1   63        -2.713       77.199       115.393       -5.500       -2.319       76.932        115.348
  1   64        -2.778       77.135       115.313       -5.000       -2.379       76.936        115.311
  1   65        -2.310       77.880       114.911       -5.000       -1.993       77.649        114.740
  1   66        -2.555       78.066       115.423       -5.400       -2.249       77.790        115.294
  1   67        -3.080       78.157       114.988       -5.200       -2.738       77.876        114.807
  1   68        -2.199       77.860       114.829       -5.100       -1.833       77.648        114.599
  1   69        -2.391       78.189       114.447       -5.300       -2.152       77.925        114.142
  1   70        -2.479       77.850       114.633       -5.300       -2.177       77.611        114.489
  1   71        -2.668       77.575       114.790       -5.400       -2.291       77.391        114.816
  1   72        -2.791       76.653       113.903       -5.400       -2.461       76.587        114.164
  1   73        -2.923       78.264       114.928       -5.000       -2.640       77.936        114.729
  1   74        -2.397       76.610       116.339       -4.800       -2.046       76.915        116.248
  1   75        -2.860       77.261       115.704       -4.800       -2.468       77.046        115.694
  1   76        -2.887       77.974       115.167       -5.000       -2.584       77.685        115.066
  1   77        -2.730       76.564       115.476       -5.500       -2.324       76.449        115.544
  1   78        -2.772       77.330       115.654       -5.600       -2.399       77.123        115.673
  1   79        -2.028       77.427       115.172       -4.700       -1.756       77.817        115.320
  1   80        -3.220       76.859       115.241       -5.100       -2.791       77.063        115.121
  1   81        -2.800       76.480       115.661       -5.400       -2.506       76.824        115.521
  1   82        -3.000       77.435       115.857       -4.900       -2.627       77.172        115.833
  1   83        -2.825       79.502       114.398       -5.400       -2.664       79.138        114.179
  1   84        -2.727       78.114       115.180       -5.800       -2.369       77.867        115.163
  1   85        -1.457       78.579       114.827       -4.900       -1.530       78.311        114.435
  1   86        -2.704       77.087       115.312       -5.600       -2.252       76.900        115.286
  1   87        -3.068       77.102       116.867       -5.100       -2.846       76.767        116.639
  1   88        -2.892       77.148       115.783       -5.600       -2.495       77.336        115.599
  1   89        -3.054       78.299       115.106       -5.300       -2.749       78.001        115.043
  1   90        -1.958       76.944       115.889       -5.300       -1.656       77.300        115.839
  1   91        -3.130       76.651       115.049       -5.100       -2.677       76.690        115.219
  1   92        -3.102       77.719       115.151       -5.600       -2.717       77.531        115.178
  1   93        -2.732       76.973       115.388       -5.300       -2.403       77.044        115.652
  1   94        -2.971       77.916       115.500       -5.500       -2.621       77.687        115.572
  1   95        -2.920       76.726       114.072       -5.500       -2.539       76.662        114.268
  1   96        -6.358       78.033       116.927       -5.300       -6.043       78.313        116.982
  1   97        -2.450       78.230       114.760       -5.300       -2.219       77.935        114.481
  1   98        -2.650       76.260       116.204       -5.100       -2.368       76.497        115.972
  1   99        -2.671       78.091       114.617       -5.500       -2.335       77.834        114.395
  1   100        -2.923       77.876       115.022       -5.200       -2.536       77.646        114.955
  1   101        -2.887       78.090       115.215       -5.200       -2.574       77.788        115.054
  1   102        -2.832       78.103       115.369       -4.800       -2.496       77.837        115.212
  1   103        -2.728       77.565       113.967       -5.200       -2.386       77.487        114.204
  1   104        -1.702       78.108       114.624       -4.800       -1.446       77.859        114.300
  1   105        -3.054       77.849       115.289       -5.100       -2.748       77.564        115.200
  1   106        -2.882       78.141       114.775       -5.600       -2.592       77.857        114.562
  1   107        -3.216       77.261       115.649       -4.700       -2.848       76.964        115.636
  1   108        -2.669       76.140       116.020       -4.900       -2.477       76.462        115.853
  1   109        -3.018       78.691       115.507       -5.200       -2.761       78.344        115.415
  1   110        -3.160       78.369       115.013       -5.300       -2.863       78.079        114.765
  1   111        -2.773       79.743       114.372       -5.400       -2.645       79.367        114.214
  1   112        -2.460       77.968       114.604       -5.000       -2.206       77.718        114.322
  1   113        -2.621       77.992       114.770       -5.000       -2.317       77.738        114.488
  1   114        -2.816       77.123       114.535       -4.800       -2.439       77.162        114.787
  1   115        -2.607       78.234       114.244       -5.300       -2.466       77.916        113.941
  1   116        -3.434       78.779       115.243       -5.000       -3.155       78.451        115.242
  1   117        -2.671       78.002       114.760       -5.200       -2.363       77.707        114.520
  1   118        -2.666       76.342       115.909       -5.500       -2.392       76.595        115.674
  1   119        -2.578       76.852       115.338       -4.700       -2.234       77.003        115.587
  1   120        -6.777       77.546       117.115       -5.400       -6.410       77.763        117.190
  1   121        -2.733       77.332       115.092       -5.200       -2.341       77.105        115.047
  1   122        -2.698       78.009       114.830       -5.000       -2.329       77.764        114.653
  1   123        -2.945       76.265       115.991       -5.500       -2.560       76.514        115.845
  1   124        -3.390       76.765       114.883       -5.300       -3.058       76.947        114.681
  1   125        -2.358       80.215       114.665       -5.300       -2.212       79.843        114.499
  1   126        -6.608       77.766       116.866       -5.600       -6.252       77.992        116.937
  1   127        -5.696       77.924       116.915       -4.800       -5.288       77.984        117.013


  2   1        -1.351       81.082       113.473       -5.100       -1.231       80.756        113.227
  2   2        -1.688       78.498       114.887       -5.100       -1.382       78.658        115.138
  2   3        -1.197       81.548       113.826       -4.800       -1.128       81.406        113.374
  2   4        -1.629       80.749       114.040       -4.700       -1.498       80.728        113.599
  2   5        -1.632       80.773       113.956       -5.000       -1.529       80.793        113.544
  2   6        -2.435       80.387       114.498       -4.900       -2.292       80.012        114.384
  2   7        -1.861       80.744       114.036       -4.800       -1.767       80.749        113.615
  2   8        -1.354       81.168       112.655       -5.100       -1.107       81.141        112.322
  2   9        -2.845       76.383       115.332       -4.800       -2.445       76.336        115.484
  2   10        -3.028       76.477       114.630       -5.400       -2.644       76.384        114.821
  2   11        -2.967       79.184       115.127       -4.500       -2.709       78.866        114.942
  2   12        -1.669       80.963       113.705       -5.100       -1.352       81.001        113.430
  2   13        -2.863       79.823       115.332       -5.100       -2.625       79.482        115.168
  2   14        -4.759       78.582       116.484       -5.100       -5.131       78.563        116.750
  2   15        -3.115       79.337       115.238       -5.200       -2.911       78.998        115.028
  2   16        -2.375       79.999       114.806       -5.100       -2.244       79.629        114.631
  2   17        -2.913       76.780       114.862       -5.200       -2.727       77.161        114.861
  2   18        -1.476       81.120       113.042       -4.800       -1.554       81.218        113.455
  2   19        -1.221       81.182       112.864       -5.200       -1.276       81.289        113.269
  2   20        -2.061       78.200       114.844       -5.100       -1.644       78.317        115.046
  2   21        -3.230       79.553       114.480       -5.000       -3.077       79.197        114.301
  2   22        -1.101       81.114       112.800       -5.000       -1.217       81.262        113.205
  2   23        -2.573       79.978       114.015       -5.600       -2.429       79.631        113.811
  2   24        -3.151       77.573       115.724       -5.100       -2.750       77.629        115.573
  2   25        -2.758       79.594       114.459       -5.000       -2.614       79.242        114.281
  2   26        -2.752       76.663       115.434       -5.500       -2.335       76.558        115.526
  2   27        -2.321       78.811       115.408       -5.200       -2.154       78.545        115.105
  2   28        -3.362       77.902       116.237       -4.900       -3.132       77.684        115.945
  2   29        -2.714       75.916       115.569       -5.500       -2.273       75.652        115.616
  2   30        -2.874       78.763       115.692       -4.800       -2.583       78.440        115.670
  2   31        -2.560       76.973       114.953       -4.900       -2.221       77.096        115.273
  2   32        -5.383       77.577       117.194       -4.900       -4.968       77.629        117.307
  2   33        -2.560       77.008       116.017       -4.500       -2.233       76.665        115.987
  2   34        -2.049       77.929       114.540       -5.300       -1.672       78.052        114.795
  2   35        -1.749       81.043       113.128       -5.300       -1.442       81.059        112.843
  2   36        -1.976       80.392       114.051       -5.800       -1.788       80.137        113.708
  2   37        -1.209       81.582       113.134       -5.000       -1.002       81.453        112.753
  2   38        -4.387       78.101       115.798       -5.300       -3.980       78.204        115.707
  2   39        -2.612       78.805       114.907       -5.400       -2.432       78.610        114.553
  2   40        -1.655       80.652       113.919       -5.200       -1.445       80.373        113.594
  2   41        -2.821       78.180       115.186       -4.800       -2.544       77.858        115.080
  2   42        -2.019       76.706       115.758       -5.000       -1.853       77.082        115.713
  2   43        -2.892       78.199       114.940       -5.000       -2.650       77.910        114.645
  2   44        -2.385       79.632       114.238       -4.900       -2.291       79.251        114.024
  2   45        -2.657       80.320       114.398       -5.200       -2.523       79.951        114.200
  2   46        -2.811       79.283       114.190       -5.500       -2.684       78.920        113.919
  2   47        -2.942       78.190       114.801       -5.300       -2.647       77.906        114.566
  2   48        -2.115       76.268       116.223       -5.100       -1.942       76.609        116.075
  2   49        -2.277       76.386       114.870       -4.800       -1.839       76.199        114.822
  2   50        -2.699       76.421       114.917       -5.300       -2.330       76.405        115.113
  2   51        -2.622       76.743       115.087       -5.100       -2.264       76.392        115.011
  2   52        -2.817       76.878       115.213       -5.000       -2.420       76.777        115.316
  2   53        -2.850       77.951       115.403       -5.500       -2.524       77.687        115.335
  2   54        -2.657       77.961       114.961       -5.700       -2.315       77.726        114.866
  2   55        -2.580       77.974       114.199       -5.900       -2.209       77.997        114.502
  2   56        -2.708       77.007       115.352       -5.200       -2.309       77.105        115.597
  2   57        -5.434       77.645       117.349       -5.100       -5.010       77.717        117.383
  2   58        -2.675       77.267       115.450       -5.200       -2.288       77.011        115.432
  2   59        -2.411       77.814       114.742       -5.400       -2.054       77.893        115.035
  2   60        -2.928       76.674       114.880       -5.700       -2.459       76.474        114.911
  2   61        -2.332       76.248       115.886       -5.100       -2.186       76.585        115.722
  2   62        -2.543       76.553       115.732       -5.400       -2.246       76.898        115.581
  2   63        -2.769       77.096       115.489       -5.300       -2.363       76.859        115.461
  2   64        -2.715       77.515       115.295       -4.900       -2.332       77.259        115.247
  2   65        -2.396       77.303       113.945       -5.600       -2.437       77.236        114.415
  2   66        -2.525       78.025       115.364       -5.400       -2.220       77.751        115.231
  2   67        -3.115       77.797       115.255       -5.100       -2.770       77.554        115.229
  2   68        -2.550       77.438       114.016       -5.300       -2.158       77.382        114.163
  2   69        -2.362       78.193       114.439       -5.300       -2.131       77.928        114.129
  2   70        -2.102       78.075       114.099       -5.400       -1.821       77.848        113.788
  2   71        -2.338       77.098       115.210       -5.700       -1.890       76.941        115.186
  2   72        -2.772       76.696       114.056       -5.400       -2.431       76.642        114.315
  2   73        -3.114       77.984       114.999       -5.000       -2.830       77.678        114.826
  2   74        -2.368       76.627       116.276       -4.800       -2.023       76.931        116.182
  2   75        -2.476       77.303       115.302       -5.000       -2.098       77.414        115.573
  2   76        -2.928       77.958       115.174       -5.100       -2.623       77.672        115.090
  2   77        -2.312       76.501       115.576       -5.400       -2.054       76.864        115.424
  2   78        -2.824       77.334       115.604       -5.600       -2.451       77.125        115.615
  2   79        -1.855       77.638       115.241       -4.600       -1.612       77.963        115.399
  2   80        -3.225       76.896       115.226       -5.100       -2.797       77.102        115.103
  2   81        -2.967       76.939       115.553       -5.400       -2.679       77.260        115.379
  2   82        -3.490       78.094       115.610       -4.800       -3.129       77.822        115.599
  2   83        -3.031       79.376       114.514       -5.400       -2.859       79.018        114.280
  2   84        -1.484       77.763       112.890       -6.400       -1.185       77.701        112.611
  2   85        -1.119       79.779       113.076       -5.000       -1.079       79.768        112.650
  2   86        -2.671       77.024       115.279       -5.700       -2.215       76.824        115.240
  2   87        -2.521       76.644       115.718       -5.400       -2.106       76.553        115.795
  2   88        -2.266       76.986       115.095       -5.700       -1.812       76.804        115.043
  2   89        -3.118       78.253       115.179       -5.500       -2.798       77.967        115.123
  2   90        -1.832       76.938       115.893       -5.300       -1.538       77.302        115.854
  2   91        -1.886       77.752       112.861       -5.800       -1.552       77.712        112.596
  2   92        -2.633       77.266       114.850       -5.900       -2.207       77.264        115.048
  2   93        -2.766       76.806       115.397       -5.300       -2.401       76.899        115.664
  2   94        -2.927       76.542       114.485       -5.400       -2.561       76.444        114.659
  2   95        -2.993       76.718       114.032       -5.600       -2.585       76.653        114.222
  2   96        -2.859       76.974       115.362       -5.300       -2.436       76.927        115.458
  2   97        -2.743       78.146       114.927       -5.300       -2.492       77.856        114.667
  2   98        -2.691       76.298       116.234       -5.100       -2.408       76.522        115.997
  2   99        -2.664       76.706       115.307       -5.500       -2.201       76.617        115.363
  2   100        -2.574       77.617       113.746       -5.600       -2.655       77.538        114.217
  2   101        -2.372       76.466       115.427       -5.200       -2.063       76.835        115.317
  2   102        -1.984       78.115       115.152       -5.000       -1.572       78.252        115.351
  2   103        -2.590       77.699       114.144       -5.500       -2.226       77.630        114.360
  2   104        -1.952       78.116       114.234       -5.200       -1.669       77.879        113.939
  2   105        -2.965       77.885       115.267       -5.100       -2.660       77.596        115.181
  2   106        -2.105       78.106       114.819       -5.700       -1.658       78.135        114.992
  2   107        -2.404       77.001       115.125       -5.000       -1.995       77.108        115.353
  2   108        -2.195       75.969       115.947       -5.100       -2.073       76.323        115.805
  2   109        -3.024       78.730       115.533       -5.200       -2.771       78.382        115.442
  2   110        -2.991       78.655       114.999       -5.400       -2.721       78.341        114.726
  2   111        -2.814       79.772       114.433       -5.500       -2.689       79.387        114.275
  2   112        -2.444       77.962       114.595       -5.000       -2.192       77.711        114.308
  2   113        -2.359       78.172       114.782       -5.000       -2.077       77.902        114.497
  2   114        -2.640       77.170       114.719       -5.000       -2.255       77.224        114.969
  2   115        -2.660       78.247       114.391       -5.300       -2.511       77.923        114.095
  2   116        -3.391       78.803       115.217       -5.000       -3.108       78.482        115.227
  2   117        -2.780       77.966       114.723       -5.300       -2.476       77.670        114.489
  2   118        -2.648       77.166       115.242       -5.300       -2.217       76.957        115.228
  2   119        -2.642       76.666       115.507       -4.700       -2.285       76.788        115.770
  2   120        -2.966       76.427       115.365       -5.500       -2.546       76.410        115.502
  2   121        -2.850       77.576       113.808       -5.100       -2.493       77.505        114.031
  2   122        -2.761       77.962       114.736       -5.000       -2.383       77.713        114.580
  2   123        -3.134       76.587       115.899       -4.800       -2.703       76.552        116.013
  2   124        -3.405       76.751       114.892       -5.300       -3.071       76.928        114.688
  2   125        -2.312       80.289       114.500       -5.300       -2.177       79.908        114.337
  2   126        -5.776       77.676       116.930       -5.300       -5.401       77.889        117.077
  2   127        -0.910       81.549       112.913       -5.000       -1.096       81.701        113.265


  3   1        -1.576       80.143       114.386       -5.000       -1.616       79.779        114.160
  3   2        -1.644       78.494       114.890       -5.100       -1.341       78.654        115.139
  3   3        -2.097       78.334       114.498       -4.900       -1.725       78.508        114.751
  3   4        -1.583       80.786       113.929       -4.700       -1.448       80.770        113.520
  3   5        -0.685       81.350       112.818       -5.000       -0.626       81.467        113.210
  3   6        -0.685       81.389       112.426       -5.100       -0.421       81.296        112.076
  3   7        -0.624       81.096       112.380       -5.100       -0.621       81.272        112.758
  3   8        -0.925       81.068       112.352       -5.200       -0.919       81.227        112.761
  3   9        -1.987       77.907       114.326       -4.900       -1.716       78.014        114.631
  3   10        -3.068       77.246       114.497       -5.500       -2.724       77.185        114.735
  3   11        -2.633       80.192       114.825       -4.700       -2.462       79.817        114.701
  3   12        -1.694       80.936       113.650       -5.100       -1.370       80.975        113.393
  3   13        -2.613       80.171       114.889       -5.100       -2.404       79.819        114.763
  3   14        -4.821       78.580       116.474       -5.200       -5.199       78.553        116.733
  3   15        -3.109       79.345       115.225       -5.200       -2.908       79.009        115.011
  3   16        -1.312       80.673       113.529       -5.000       -1.086       80.354        113.310
  3   17        -2.518       77.851       114.299       -5.200       -2.171       77.940        114.612
  3   18        -1.247       81.183       112.876       -5.100       -1.263       81.237        113.334
  3   19        -1.423       81.290       112.874       -5.500       -1.501       81.379        113.283
  3   20        -2.047       78.187       114.835       -5.100       -1.628       78.303        115.036
  3   21        -1.072       80.917       111.909       -5.300       -1.125       81.090        112.303
  3   22        -0.993       81.080       112.616       -5.200       -1.117       81.255        112.988
  3   23        -2.526       80.036       113.987       -5.600       -2.402       79.686        113.782
  3   24        -3.091       77.723       115.722       -5.100       -2.702       77.792        115.548
  3   25        -2.887       76.274       115.631       -5.000       -2.476       76.203        115.742
  3   26        -2.818       79.564       115.158       -5.700       -2.638       79.222        114.972
  3   27        -2.458       79.383       115.139       -5.700       -2.290       79.029        114.959
  3   28        -3.400       77.872       116.226       -4.900       -3.165       77.660        115.934
  3   29        -2.823       75.919       115.609       -5.300       -2.371       75.657        115.629
  3   30        -3.007       78.675       115.695       -4.600       -2.684       78.344        115.656
  3   31        -2.555       76.997       114.985       -4.800       -2.212       77.123        115.301
  3   32        -5.387       77.561       117.164       -4.900       -4.972       77.610        117.275
  3   33        -3.049       77.313       115.629       -4.600       -2.653       77.046        115.594
  3   34        -2.072       77.926       114.608       -5.300       -1.692       78.034        114.864
  3   35        -0.699       81.782       112.433       -5.400       -0.393       81.629        112.130
  3   36        -2.067       80.333       114.176       -5.800       -1.868       80.090        113.822
  3   37        -1.033       81.598       113.063       -4.900       -0.818       81.491        112.721
  3   38        -3.203       76.794       115.712       -5.400       -2.799       76.687        115.797
  3   39        -2.588       78.932       114.886       -5.400       -2.418       78.727        114.532
  3   40        -1.844       80.502       114.035       -5.200       -1.639       80.229        113.699
  3   41        -2.837       78.057       115.142       -4.700       -2.564       77.738        115.045
  3   42        -2.093       76.703       115.730       -5.000       -1.916       77.073        115.683
  3   43        -2.559       78.169       114.831       -5.000       -2.346       77.890        114.507
  3   44        -1.114       80.047       113.557       -4.900       -1.061       80.095        113.131
  3   45        -1.160       80.863       112.538       -5.100       -0.943       80.850        112.176
  3   46        -2.755       79.350       114.178       -5.600       -2.641       78.991        113.925
  3   47        -2.907       78.142       114.832       -5.200       -2.618       77.858        114.603
  3   48        -2.049       76.339       116.199       -5.100       -1.888       76.688        116.062
  3   49        -2.770       75.960       115.603       -4.700       -2.712       75.965        116.015
  3   50        -0.335       80.574       112.049       -5.100       -0.144       80.523        111.661
  3   51        -2.073       76.280       115.980       -5.300       -1.767       76.614        115.867
  3   52        -2.375       76.995       114.909       -5.200       -2.000       77.105        115.187
  3   53        -2.869       78.056       115.345       -5.500       -2.545       77.794        115.268
  3   54        -1.277       77.585       113.097       -5.900       -0.972       77.524        112.818
  3   55        -2.567       77.953       114.230       -5.900       -2.193       77.982        114.532
  3   56        -2.660       77.259       115.702       -5.100       -2.276       77.057        115.728
  3   57        -2.929       78.658       115.658       -5.000       -2.589       78.340        115.602
  3   58        -1.787       76.550       115.682       -5.300       -1.613       76.904        115.558
  3   59        -2.396       77.813       114.760       -5.400       -2.038       77.894        115.052
  3   60        -0.381       80.663       112.009       -5.500       -0.210       80.627        111.646
  3   61        -0.780       79.913       112.000       -5.400       -0.574       79.867        111.647
  3   62        -2.560       76.591       115.695       -5.500       -2.267       76.926        115.535
  3   63        -2.735       77.193       115.412       -5.500       -2.337       76.931        115.374
  3   64        -2.717       77.557       115.278       -5.000       -2.338       77.297        115.226
  3   65        -1.035       77.082       112.661       -5.600       -1.330       77.315        112.852
  3   66        -2.525       78.046       115.386       -5.400       -2.219       77.771        115.250
  3   67        -3.186       78.174       115.088       -5.200       -2.838       77.894        114.967
  3   68        -2.693       77.265       114.399       -5.300       -2.310       77.113        114.423
  3   69        -2.335       76.174       115.663       -5.200       -2.005       76.513        115.556
  3   70        -2.160       77.929       114.139       -5.300       -1.864       77.718        113.831
  3   71        -2.380       77.002       115.220       -5.700       -1.915       76.849        115.186
  3   72        -2.678       77.763       114.103       -5.700       -2.274       77.759        114.336
  3   73        -2.955       78.109       114.791       -4.900       -2.680       77.794        114.555
  3   74        -2.465       76.278       116.105       -4.900       -2.175       76.610        116.010
  3   75        -2.548       77.057       115.504       -5.100       -2.169       77.168        115.775
  3   76        -2.828       78.242       115.229       -5.100       -2.532       77.934        115.130
  3   77        -2.381       76.478       115.601       -5.500       -2.115       76.824        115.440
  3   78        -2.756       77.374       115.681       -5.600       -2.377       77.162        115.692
  3   79        -3.613       78.579       116.421       -4.800       -3.366       78.293        116.169
  3   80        -3.558       76.866       115.505       -4.600       -3.340       77.191        115.379
  3   81        -2.800       76.606       115.652       -5.300       -2.500       76.948        115.505
  3   82        -3.066       77.184       115.721       -5.000       -2.664       76.954        115.707
  3   83        -3.063       79.289       114.548       -5.400       -2.887       78.931        114.310
  3   84        -1.403       77.563       113.021       -6.500       -1.124       77.520        112.710
  3   85        -1.182       80.181       112.335       -5.600       -1.018       80.024        111.939
  3   86        -2.769       77.067       115.313       -5.800       -2.316       76.864        115.270
  3   87        -2.513       76.688       115.646       -5.300       -2.100       76.595        115.732
  3   88        -2.402       77.165       115.230       -5.700       -1.937       77.042        115.248
  3   89        -3.141       78.210       115.168       -5.500       -2.820       77.927        115.111
  3   90        -1.847       76.870       115.873       -5.300       -1.535       77.228        115.842
  3   91        -1.785       76.350       115.648       -5.500       -1.482       76.678        115.485
  3   92        -2.706       77.363       114.904       -5.700       -2.261       77.339        115.075
  3   93        -2.755       76.878       115.440       -5.300       -2.424       76.950        115.702
  3   94        -2.908       76.575       114.442       -5.400       -2.538       76.502        114.625
  3   95        -2.926       76.731       114.080       -5.500       -2.548       76.668        114.279
  3   96        -2.532       77.576       115.357       -5.200       -2.164       77.365        115.377
  3   97        -2.671       78.193       114.826       -5.400       -2.432       77.904        114.554
  3   98        -2.399       77.526       115.112       -5.200       -2.274       77.368        115.513
  3   99        -2.694       76.631       115.222       -5.600       -2.228       76.556        115.279
  3   100        -2.535       77.591       113.757       -5.600       -2.620       77.509        114.227
  3   101        -2.301       76.705       115.442       -5.200       -2.023       77.069        115.319
  3   102        -1.994       78.171       115.104       -4.900       -1.583       78.303        115.310
  3   103        -2.635       77.572       114.035       -5.500       -2.283       77.504        114.261
  3   104        -1.970       78.172       114.211       -5.200       -1.686       77.936        113.907
  3   105        -3.059       77.835       115.234       -5.100       -2.748       77.550        115.152
  3   106        -2.187       77.989       114.660       -5.800       -1.749       78.009        114.854
  3   107        -2.363       76.979       115.171       -4.900       -1.953       77.095        115.397
  3   108        -2.243       75.962       115.912       -5.100       -2.113       76.316        115.766
  3   109        -3.001       78.683       115.501       -5.200       -2.748       78.334        115.400
  3   110        -3.179       78.334       114.984       -5.300       -2.880       78.046        114.725
  3   111        -2.797       79.782       114.397       -5.500       -2.669       79.398        114.233
  3   112        -2.529       77.883       114.525       -5.000       -2.264       77.640        114.238
  3   113        -1.776       76.137       115.917       -4.900       -1.609       76.495        115.781
  3   114        -2.486       77.277       114.723       -5.000       -2.135       77.318        114.954
  3   115        -2.615       78.533       114.529       -5.400       -2.439       78.189        114.223
  3   116        -3.482       78.760       115.247       -5.000       -3.179       78.425        115.229
  3   117        -2.585       78.137       114.757       -5.200       -2.298       77.824        114.518
  3   118        -2.718       76.883       115.147       -5.400       -2.332       76.735        115.212
  3   119        -2.554       76.974       115.344       -4.800       -2.212       77.149        115.592
  3   120        -3.046       76.409       115.141       -5.500       -2.621       76.405        115.264
  3   121        -2.661       77.341       114.954       -5.300       -2.265       77.106        114.906
  3   122        -2.582       77.996       115.056       -4.900       -2.243       77.753        114.952
  3   123        -1.544       76.063       116.270       -5.600       -1.336       76.411        116.107
  3   124        -3.392       76.757       114.890       -5.300       -3.060       76.935        114.686
  3   125        -1.024       80.911       112.631       -5.300       -0.795       80.867        112.288
  3   126        -4.756       77.313       116.458       -5.100       -4.343       77.405        116.450
  3   127        -0.761       81.364       112.869       -5.000       -0.962       81.534        113.214


  4   1        -0.277       81.076       112.399       -5.200       -0.257       81.226        112.829
  4   2        -1.676       78.514       114.883       -5.100       -1.369       78.670        115.134
  4   3        -0.369       82.244       112.732       -5.000       -0.356       81.817        112.513
  4   4         0.320       81.751       112.361       -4.600        0.247       81.407        112.136
  4   5        -0.011       81.904       112.531       -5.100       -0.104       81.565        112.249
  4   6         0.071       81.238       112.215       -5.200        0.136       81.399        112.584
  4   7        -0.287       81.122       112.144       -5.100       -0.272       81.292        112.559
  4   8         0.035       82.076       112.440       -5.300        0.197       81.819        112.053
  4   9        -2.869       76.252       115.278       -4.900       -2.480       76.219        115.457
  4   10        -3.109       76.555       114.613       -5.400       -2.697       76.473        114.805
  4   11         0.090       81.788       112.730       -4.900        0.028       81.481        112.365
  4   12        -0.700       81.001       112.466       -5.200       -0.805       81.241        112.859
  4   13        -2.792       79.963       115.267       -5.100       -2.568       79.616        115.112
  4   14        -2.765       79.703       115.080       -5.300       -2.636       79.347        114.859
  4   15         0.150       81.459       112.798       -5.300        0.036       81.171        112.407
  4   16         0.362       81.462       112.763       -5.000        0.508       81.296        112.403
  4   17        -2.515       77.829       114.348       -5.300       -2.171       77.921        114.668
  4   18        -1.018       81.162       112.561       -4.800       -1.050       81.250        112.991
  4   19        -0.751       81.278       112.428       -5.300       -0.760       81.353        112.883
  4   20        -2.055       78.180       114.816       -5.100       -1.638       78.294        115.021
  4   21        -0.895       80.844       111.832       -5.200       -0.944       81.030        112.236
  4   22        -0.087       82.659       112.784       -5.000       -0.215       82.236        112.685
  4   23        -2.493       80.025       113.963       -5.500       -2.366       79.676        113.759
  4   24        -3.139       77.629       115.733       -5.100       -2.746       77.689        115.570
  4   25        -2.930       79.512       114.473       -5.100       -2.765       79.162        114.294
  4   26        -2.856       79.450       115.159       -5.700       -2.672       79.115        114.974
  4   27        -2.456       79.357       115.096       -5.700       -2.290       79.001        114.928
  4   28        -2.450       77.230       114.533       -4.900       -2.158       77.343        114.892
  4   29         0.646       81.785       112.819       -5.400        0.701       81.847        112.394
  4   30        -0.793       79.941       113.645       -5.000       -0.677       79.818        114.040
  4   31        -2.556       76.958       114.959       -4.900       -2.217       77.084        115.279
  4   32        -2.933       77.854       115.488       -4.500       -2.596       77.598        115.459
  4   33        -3.274       77.382       115.389       -4.900       -2.870       77.107        115.379
  4   34         0.039       81.391       112.478       -5.300        0.272       81.268        112.145
  4   35        -0.075       81.320       112.308       -5.500        0.113       81.161        111.923
  4   36        -1.833       80.630       113.991       -5.800       -1.666       80.353        113.674
  4   37         0.030       81.559       112.599       -5.300        0.216       81.417        112.234
  4   38        -0.495       81.879       112.427       -5.400       -0.274       81.773        112.082
  4   39        -0.281       81.673       112.478       -5.500       -0.405       81.333        112.238
  4   40        -0.193       81.889       112.529       -5.400       -0.149       81.498        112.361
  4   41        -2.823       77.927       115.073       -4.700       -2.548       77.613        114.976
  4   42        -2.929       77.527       115.462       -5.100       -2.603       77.253        115.463
  4   43        -3.136       78.104       115.185       -4.900       -2.872       77.805        115.017
  4   44        -1.063       80.057       113.526       -4.900       -1.018       80.107        113.102
  4   45        -0.041       81.084       111.967       -5.400        0.023       81.165        112.394
  4   46        -2.744       79.427       114.124       -5.600       -2.662       79.077        113.899
  4   47        -3.036       78.202       114.734       -5.300       -2.738       77.911        114.522
  4   48        -2.058       76.337       116.197       -5.100       -1.894       76.685        116.059
  4   49        -2.347       76.845       114.846       -4.900       -1.966       76.571        114.713
  4   50        -0.281       80.083       112.005       -5.400       -0.092       80.014        111.620
  4   51        -2.128       76.223       115.918       -5.300       -1.813       76.558        115.809
  4   52        -2.364       76.873       114.952       -5.300       -1.994       76.985        115.228
  4   53        -2.848       77.943       115.389       -5.500       -2.523       77.679        115.319
  4   54        -1.284       77.638       112.949       -6.000       -0.968       77.584        112.677
  4   55        -2.559       77.953       114.233       -5.900       -2.184       77.982        114.533
  4   56        -2.701       77.127       115.580       -5.100       -2.290       76.885        115.543
  4   57        -2.975       78.631       115.696       -5.000       -2.627       78.317        115.644
  4   58        -1.782       76.588       115.653       -5.300       -1.612       76.942        115.528
  4   59        -2.409       77.808       114.770       -5.400       -2.051       77.889        115.067
  4   60        -1.904       76.588       115.885       -4.800       -1.570       76.894        115.735
  4   61        -0.725       80.045       111.953       -5.400       -0.525       79.994        111.597
  4   62        -0.258       80.894       112.003       -5.500       -0.045       80.846        111.649
  4   63        -2.748       77.183       115.393       -5.500       -2.350       76.916        115.350
  4   64        -2.713       77.260       115.316       -5.000       -2.323       77.038        115.298
  4   65        -1.038       77.100       112.824       -5.200       -1.339       77.388        112.994
  4   66        -2.525       78.038       115.388       -5.400       -2.219       77.764        115.253
  4   67        -3.090       77.841       115.284       -5.100       -2.745       77.594        115.244
  4   68        -1.270       77.496       113.031       -5.700       -0.927       77.466        112.779
  4   69        -1.879       78.287       115.019       -5.400       -1.464       78.402        115.222
  4   70        -2.384       77.987       114.607       -5.300       -2.086       77.740        114.451
  4   71        -2.803       77.611       114.861       -5.900       -2.413       77.429        114.888
  4   72        -2.753       77.698       114.218       -5.700       -2.355       77.673        114.458
  4   73        -3.024       78.135       114.920       -5.000       -2.741       77.821        114.719
  4   74        -2.345       76.525       116.330       -4.800       -2.019       76.841        116.237
  4   75        -2.429       77.316       115.398       -4.900       -2.070       77.455        115.682
  4   76        -2.858       78.051       115.143       -4.900       -2.543       77.761        114.999
  4   77        -2.772       76.608       115.515       -5.600       -2.364       76.496        115.587
  4   78        -2.704       77.450       115.655       -5.500       -2.330       77.231        115.662
  4   79        -1.845       77.622       115.238       -4.700       -1.603       77.948        115.396
  4   80        -3.181       76.786       115.335       -5.100       -2.760       76.997        115.207
  4   81        -3.022       77.447       115.737       -5.100       -2.663       77.225        115.770
  4   82        -2.983       77.454       115.837       -4.900       -2.618       77.187        115.812
  4   83        -0.078       80.542       111.973       -5.500       -0.046       80.593        112.437
  4   84        -1.410       77.672       112.971       -6.500       -1.130       77.614        112.667
  4   85        -0.512       81.004       111.694       -5.600       -0.601       81.188        112.050
  4   86        -2.815       76.974       115.296       -5.800       -2.353       76.798        115.287
  4   87        -2.483       76.757       115.666       -5.200       -2.075       76.639        115.733
  4   88        -2.434       76.958       115.032       -5.900       -1.972       76.784        114.998
  4   89        -3.011       78.309       115.093       -5.300       -2.715       78.006        115.033
  4   90        -1.799       76.773       116.005       -5.300       -1.488       77.129        115.979
  4   91        -2.314       77.482       114.744       -5.600       -2.491       77.109        114.962
  4   92        -2.699       77.337       114.898       -5.900       -2.254       77.328        115.074
  4   93        -2.729       76.971       115.379       -5.300       -2.398       77.038        115.643
  4   94        -2.911       76.539       114.454       -5.400       -2.545       76.442        114.631
  4   95        -2.917       76.722       114.115       -5.500       -2.539       76.657        114.312
  4   96        -2.526       77.599       115.337       -5.200       -2.164       77.382        115.360
  4   97        -2.662       78.199       114.828       -5.400       -2.424       77.909        114.560
  4   98        -2.404       77.514       115.068       -5.100       -2.279       77.348        115.467
  4   99        -2.585       76.784       115.270       -5.400       -2.124       76.692        115.321
  4   100        -2.511       77.601       113.692       -5.700       -2.577       77.506        114.155
  4   101        -2.351       76.437       115.403       -5.200       -2.037       76.790        115.288
  4   102        -0.107       79.600       112.544       -5.000        0.065       79.530        112.169
  4   103        -2.625       77.526       114.002       -5.700       -2.273       77.463        114.236
  4   104        -1.934       78.117       114.238       -5.100       -1.653       77.878        113.948
  4   105        -3.014       77.891       115.305       -5.200       -2.709       77.602        115.213
  4   106         0.031       80.071       112.318       -5.500        0.260       80.043        111.941
  4   107        -2.746       77.324       114.698       -5.100       -2.334       77.324        114.931
  4   108        -1.972       75.979       116.048       -5.000       -1.851       76.333        115.914
  4   109        -0.245       80.647       112.241       -5.100       -0.173       80.633        112.702
  4   110        -3.164       78.358       115.033       -5.200       -2.864       78.069        114.789
  4   111        -2.801       79.725       114.406       -5.500       -2.668       79.349        114.252
  4   112        -2.457       77.940       114.582       -5.000       -2.201       77.693        114.294
  4   113        -2.501       78.023       114.745       -5.000       -2.214       77.764        114.452
  4   114        -2.664       77.243       114.767       -4.700       -2.284       77.281        115.011
  4   115        -2.363       78.571       114.319       -5.500       -2.277       78.226        113.983
  4   116        -3.502       78.755       115.301       -5.000       -3.190       78.418        115.290
  4   117        -2.702       78.012       114.681       -5.300       -2.387       77.717        114.440
  4   118        -2.290       76.119       115.791       -5.200       -2.077       76.414        115.591
  4   119        -2.533       76.950       115.337       -4.700       -2.193       77.100        115.596
  4   120        -0.092       80.349       111.953       -5.300        0.052       80.331        112.374
  4   121        -2.909       77.797       114.571       -5.400       -2.572       77.567        114.562
  4   122        -2.634       78.008       114.739       -5.000       -2.280       77.748        114.536
  4   123        -2.357       76.317       116.064       -5.400       -2.003       76.621        115.949
  4   124        -0.014       80.350       111.769       -5.600       -0.047       80.352        112.249
  4   125        -1.053       80.896       112.626       -5.300       -0.820       80.849        112.284
  4   126        -2.956       79.682       115.053       -5.200       -2.765       79.348        114.855
  4   127        -0.422       80.865       112.276       -5.000       -0.228       80.648        111.919


  5   1         0.811       82.504       112.374       -5.600        1.007       82.296        112.067
  5   2         0.520       82.348       112.288       -5.300        0.427       81.951        112.029
  5   3         0.428       82.446       112.345       -5.500        0.624       82.229        112.041
  5   4         0.857       81.920       111.759       -5.100        0.747       81.547        111.621
  5   5         0.126       82.050       112.396       -5.500        0.045       81.680        112.105
  5   6         0.702       82.073       112.197       -5.800        0.888       81.794        111.876
  5   7         0.842       81.954       112.304       -5.600        0.948       81.747        111.950
  5   8         0.367       81.785       112.388       -6.000        0.511       81.534        112.028
  5   9         0.626       81.898       112.096       -5.100        0.759       81.688        111.738
  5   10         1.228       81.880       112.220       -5.400        0.963       81.625        111.949
  5   11         0.963       82.303       112.373       -5.200        1.103       82.050        112.072
  5   12         0.632       81.980       112.648       -5.500        0.790       81.739        112.334
  5   13         1.045       81.579       112.289       -5.200        1.151       81.354        111.955
  5   14         0.769       82.338       112.491       -5.800        0.916       82.088        112.185
  5   15         0.642       81.801       112.452       -5.500        0.800       81.562        112.112
  5   16         0.865       81.864       112.471       -6.000        0.996       81.605        112.185
  5   17         0.678       81.696       112.283       -5.200        0.792       81.516        111.902
  5   18         0.561       82.067       112.403       -4.900        0.680       81.833        112.018
  5   19         0.285       82.166       112.193       -5.200        0.129       81.772        111.985
  5   20         0.759       81.852       112.429       -5.500        0.884       81.629        112.117
  5   21        -0.896       80.869       111.775       -5.300       -0.966       81.082        112.169
  5   22         0.593       81.876       112.201       -5.300        0.405       81.574        111.901
  5   23        -1.242       80.992       112.135       -5.300       -0.987       80.948        111.811
  5   24         0.584       81.960       112.667       -5.500        0.725       81.770        112.290
  5   25         0.468       81.845       112.583       -5.600        0.635       81.642        112.256
  5   26         0.632       82.058       112.898       -5.300        0.718       81.823        112.498
  5   27         0.558       82.108       112.335       -5.600        0.731       81.911        112.008
  5   28        -1.277       77.469       115.941       -4.600       -1.038       77.139        115.983
  5   29         0.549       81.897       112.323       -5.200        0.395       81.566        112.071
  5   30        -0.819       79.926       113.650       -5.000       -0.697       79.805        114.043
  5   31        -1.475       77.536       116.064       -4.100       -1.197       77.246        116.132
  5   32        -1.777       77.736       115.845       -4.400       -1.518       77.938        116.079
  5   33        -1.606       76.654       116.909       -4.100       -1.235       76.374        116.772
  5   34         0.499       81.665       112.452       -5.600        0.673       81.457        112.114
  5   35         0.306       81.348       112.367       -5.500        0.472       81.172        112.016
  5   36        -1.834       80.630       114.020       -5.700       -1.666       80.354        113.701
  5   37         0.244       81.606       112.529       -5.800        0.410       81.407        112.180
  5   38        -0.591       81.892       112.539       -5.300       -0.362       81.793        112.196
  5   39        -0.216       81.687       112.429       -5.600       -0.344       81.350        112.187
  5   40         0.381       81.845       112.474       -5.700        0.556       81.627        112.137
  5   41        -2.255       78.078       114.990       -4.400       -2.017       77.779        114.758
  5   42         1.162       81.816       112.173       -5.100        1.367       81.445        111.864
  5   43        -2.432       78.217       114.818       -4.800       -2.228       77.928        114.506
  5   44        -1.026       80.086       113.579       -4.900       -0.982       80.146        113.161
  5   45         0.580       81.606       112.275       -5.800        0.680       81.437        111.900
  5   46         0.600       81.276       112.755       -5.300        0.427       81.062        112.389
  5   47        -2.307       78.040       114.817       -5.000       -2.071       77.771        114.546
  5   48         1.557       81.825       112.227       -4.900        1.287       81.564        111.994
  5   49        -1.984       77.220       115.256       -4.500       -1.648       76.912        115.095
  5   50        -0.290       80.157       111.973       -5.400       -0.099       80.093        111.594
  5   51         0.789       82.254       112.254       -5.900        0.966       82.061        111.942
  5   52         0.585       80.816       111.219       -5.700        0.822       80.579        110.915
  5   53         1.317       81.922       112.241       -5.400        1.055       81.635        111.984
  5   54        -1.196       77.569       113.014       -6.000       -0.895       77.518        112.724
  5   55         1.196       81.333       111.211       -5.700        0.836       81.009        111.084
  5   56         0.352       80.841       111.190       -6.100        0.600       80.623        110.894
  5   57        -1.553       78.254       114.770       -4.600       -1.238       78.205        115.036
  5   58        -1.511       77.170       115.893       -4.900       -1.323       77.572        115.706
  5   59        -0.979       77.350       115.515       -4.700       -0.775       77.653        115.691
  5   60         0.379       81.525       112.297       -5.900        0.518       81.304        111.885
  5   61         0.394       81.652       112.438       -5.600        0.568       81.452        112.084
  5   62        -0.253       80.918       112.020       -5.500       -0.042       80.873        111.662
  5   63         1.248       81.447       112.075       -4.800        1.001       81.160        111.865
  5   64         1.597       81.574       112.157       -4.900        1.314       81.342        111.919
  5   65        -0.890       77.929       113.021       -5.400       -0.789       78.306        112.853
  5   66        -2.293       78.022       115.462       -5.300       -2.010       77.750        115.323
  5   67         0.053       80.342       112.007       -5.200        0.185       80.352        112.437
  5   68         1.039       81.466       111.673       -5.400        0.785       81.128        111.457
  5   69         0.213       80.127       111.935       -5.400        0.299       80.165        112.371
  5   70         0.481       80.560       111.952       -5.600        0.577       80.597        112.392
  5   71         1.443       82.124       112.319       -5.400        1.169       81.872        112.058
  5   72         0.810       80.924       111.030       -5.800        0.565       81.055        111.326
  5   73        -0.007       80.648       111.413       -5.000        0.239       80.409        111.102
  5   74         0.735       82.044       112.341       -5.700        0.911       81.851        112.054
  5   75         0.889       81.801       111.786       -5.500        0.611       81.501        111.571
  5   76        -2.340       78.070       115.132       -4.600       -2.068       77.787        114.915
  5   77         0.567       80.887       111.491       -5.500        0.516       80.912        111.951
  5   78        -0.976       77.703       116.484       -4.700       -0.800       77.269        116.408
  5   79         1.578       81.690       112.249       -4.800        1.282       81.436        112.000
  5   80         1.229       81.665       112.318       -4.800        0.987       81.391        112.042
  5   81        -1.933       79.139       114.358       -4.800       -1.889       79.233        113.928
  5   82         1.347       81.404       112.516       -4.500        1.432       81.347        112.104
  5   83         0.067       80.687       111.884       -5.500        0.087       80.771        112.329
  5   84        -1.464       77.811       113.114       -6.300       -1.183       77.735        112.802
  5   85        -0.942       79.707       112.525       -5.300       -0.786       79.624        112.147
  5   86         1.095       82.079       112.300       -5.200        1.261       81.851        112.017
  5   87         1.126       81.733       112.362       -5.300        1.272       81.528        112.024
  5   88        -1.667       77.342       115.694       -5.100       -1.260       77.118        115.574
  5   89         0.444       80.534       111.864       -5.300        0.550       80.510        112.311
  5   90        -2.233       78.144       114.593       -5.000       -1.956       77.907        114.248
  5   91        -1.641       77.751       113.010       -5.600       -1.370       77.682        112.698
  5   92         0.641       81.590       111.801       -5.300        0.396       81.236        111.584
  5   93         0.988       81.699       111.907       -5.600        0.692       81.417        111.680
  5   94         2.539       82.433       112.167       -5.700        2.617       82.517        112.608
  5   95         0.173       80.476       111.111       -5.300       -0.065       80.519        111.517
  5   96        -0.918       79.740       112.455       -5.300       -0.576       80.031        112.250
  5   97        -1.320       79.015       113.879       -5.300       -1.310       79.093        113.445
  5   98         0.992       81.826       112.128       -5.400        0.740       81.543        111.861
  5   99        -1.367       77.769       114.724       -5.000       -1.085       78.147        114.714
  5   100        -2.239       77.957       115.075       -4.900       -1.926       77.701        114.850
  5   101         1.592       81.910       112.174       -5.200        1.277       81.673        111.955
  5   102         1.396       81.304       111.446       -5.800        1.050       80.998        111.305
  5   103        -0.087       80.480       112.048       -5.400        0.020       80.522        112.468
  5   104         1.120       80.871       111.705       -5.600        1.179       80.850        112.141
  5   105        -2.560       77.899       115.157       -4.900       -2.295       77.600        114.963
  5   106         0.789       81.378       111.934       -5.600        0.458       81.094        111.932
  5   107         0.525       80.634       112.130       -5.200        0.215       80.351        112.037
  5   108         1.302       82.281       112.398       -4.300        1.032       82.021        112.162
  5   109        -0.243       80.642       112.235       -5.100       -0.172       80.629        112.694
  5   110        -2.872       78.328       115.193       -5.100       -2.604       78.041        114.929
  5   111         0.769       81.250       112.636       -5.300        0.554       81.001        112.313
  5   112         0.477       80.528       111.854       -5.100        0.759       80.271        111.565
  5   113        -2.299       78.103       114.712       -4.800       -2.019       77.844        114.418
  5   114         1.454       81.922       112.434       -4.700        1.075       81.922        112.224
  5   115        -1.866       78.369       114.493       -5.200       -1.780       78.036        114.173
  5   116        -0.670       80.178       113.420       -5.000       -0.587       80.086        113.826
  5   117        -2.279       77.948       114.697       -5.100       -2.002       77.660        114.433
  5   118         1.124       81.368       111.546       -5.300        0.904       80.992        111.365
  5   119         0.505       81.066       111.544       -5.100        0.703       80.736        111.266
  5   120         1.226       81.736       111.821       -5.700        0.967       81.417        111.609
  5   121         0.572       80.435       111.746       -5.100        0.677       80.341        112.193
  5   122         1.214       81.760       111.551       -5.400        0.929       81.443        111.358
  5   123         0.645       82.071       112.248       -5.300        0.831       81.852        111.968
  5   124         0.116       80.385       111.700       -5.800        0.067       80.385        112.174
  5   125        -1.042       80.887       112.624       -5.300       -0.809       80.839        112.282
  5   126         0.479       82.385       112.805       -5.200        0.649       82.189        112.470
  5   127         0.648       81.612       111.741       -5.100        0.472       81.227        111.525


  6   1         0.807       82.621       112.449       -5.500        1.002       82.417        112.149
  6   2         0.494       82.356       112.253       -5.400        0.403       81.955        111.997
  6   3         0.658       82.433       112.352       -5.200        0.810       82.172        112.013
  6   4         0.678       81.843       111.929       -5.000        0.567       81.471        111.769
  6   5         0.015       81.989       112.377       -5.500       -0.056       81.614        112.090
  6   6         0.691       82.198       112.303       -5.900        0.860       81.899        111.963
  6   7         0.860       81.858       112.338       -5.400        0.976       81.661        111.979
  6   8         0.574       81.641       112.431       -5.600        0.678       81.408        112.024
  6   9         0.769       81.888       112.090       -5.000        0.901       81.684        111.728
  6   10         1.319       81.645       112.424       -5.300        1.040       81.461        112.123
  6   11         0.806       81.966       112.388       -5.000        0.623       81.680        112.061
  6   12         0.680       82.033       112.590       -5.400        0.834       81.786        112.272
  6   13         0.998       81.695       112.309       -5.200        1.108       81.456        111.987
  6   14         0.435       81.594       112.585       -5.500        0.275       81.313        112.256
  6   15         0.686       81.801       112.432       -5.500        0.826       81.544        112.088
  6   16         0.881       81.915       112.497       -5.900        1.015       81.654        112.215
  6   17        -0.100       81.476       113.744       -4.800       -0.235       81.380        113.324
  6   18         0.554       82.056       112.449       -4.900        0.676       81.828        112.067
  6   19        -0.878       81.332       112.490       -5.300       -0.901       81.408        112.933
  6   20         0.825       81.954       112.419       -5.300        0.954       81.730        112.112
  6   21        -0.474       81.266       112.353       -4.900       -0.579       80.961        112.051
  6   22         0.552       82.008       112.267       -5.200        0.392       81.696        111.959
  6   23        -0.744       81.348       112.193       -5.400       -0.769       81.463        112.618
  6   24         0.036       82.500       112.593       -5.400        0.002       82.077        112.389
  6   25         0.568       81.745       112.556       -5.300        0.742       81.559        112.218
  6   26        -1.704       79.337       114.835       -5.200       -1.742       79.056        114.546
  6   27         0.795       82.266       112.362       -5.300        0.943       82.062        112.034
  6   28        -0.421       77.607       116.351       -4.400       -0.243       77.173        116.290
  6   29         0.573       81.770       112.599       -5.700        0.712       81.606        112.209
  6   30         0.904       81.202       113.087       -4.400        0.922       81.403        112.690
  6   31         0.897       81.816       112.077       -4.700        1.136       81.479        111.753
  6   32         1.770       82.258       112.429       -4.700        1.493       81.996        112.214
  6   33         1.138       81.807       111.771       -5.600        0.929       81.459        111.564
  6   34        -0.185       81.985       112.716       -5.200       -0.217       81.588        112.470
  6   35         0.384       81.757       111.954       -5.300        0.419       81.336        111.799
  6   36        -1.645       80.606       113.918       -5.600       -1.479       80.334        113.588
  6   37         0.499       81.504       112.526       -5.400        0.652       81.326        112.160
  6   38        -0.172       81.680       112.393       -5.000       -0.321       81.355        112.138
  6   39        -0.188       81.443       112.668       -5.600       -0.289       81.125        112.340
  6   40         0.749       81.904       112.373       -5.400        0.895       81.702        112.030
  6   41         1.549       81.199       112.231       -3.900        1.288       80.910        112.006
  6   42         0.906       81.758       112.126       -4.900        1.110       81.583        111.832
  6   43        -1.311       78.458       114.724       -3.700       -1.354       78.506        114.285
  6   44         0.395       81.250       112.958       -5.100        0.249       81.065        112.536
  6   45         0.072       81.151       111.962       -5.400        0.146       81.218        112.388
  6   46         0.527       81.233       112.713       -5.400        0.347       81.013        112.357
  6   47        -1.008       76.881       116.184       -4.000       -0.767       76.494        116.050
  6   48         1.608       81.818       112.290       -4.800        1.339       81.565        112.041
  6   49         1.316       81.883       112.584       -4.600        1.105       81.661        112.271
  6   50        -0.145       80.465       112.080       -5.300        0.066       80.436        111.726
  6   51         0.756       81.497       112.322       -6.100        0.853       81.289        111.887
  6   52         0.615       80.959       111.251       -5.700        0.856       80.717        110.939
  6   53         1.177       81.809       111.870       -5.500        0.905       81.537        111.662
  6   54        -0.959       77.741       113.118       -5.800       -0.688       77.668        112.818
  6   55         0.963       80.907       111.474       -5.300        0.843       81.036        111.919
  6   56         0.310       80.871       111.198       -6.100        0.565       80.655        110.907
  6   57         1.092       81.969       112.270       -4.900        1.241       81.770        111.949
  6   58        -0.937       77.273       116.908       -4.400       -0.733       76.896        116.887
  6   59        -0.965       77.510       115.631       -4.600       -0.738       77.805        115.793
  6   60        -0.073       80.930       111.975       -5.600        0.115       80.869        111.615
  6   61         0.779       81.456       112.086       -5.300        0.883       81.240        111.683
  6   62         0.552       81.937       112.262       -5.200        0.746       81.779        111.906
  6   63        -1.048       77.067       116.122       -4.700       -0.785       76.937        115.722
  6   64         1.540       81.586       112.136       -4.800        1.246       81.337        111.906
  6   65         0.329       80.416       111.098       -5.500        0.076       80.615        111.394
  6   66        -0.273       79.314       112.943       -4.600       -0.117       79.542        112.594
  6   67         1.422       81.715       111.713       -5.400        1.102       81.452        111.510
  6   68         1.033       81.377       111.532       -5.400        0.761       81.033        111.343
  6   69         0.807       81.457       111.858       -5.000        0.908       81.100        111.541
  6   70         0.901       80.739       111.593       -5.600        0.851       80.791        112.043
  6   71        -1.432       76.805       115.655       -4.700       -1.008       76.583        115.568
  6   72         0.502       80.823       111.108       -6.000        0.267       80.920        111.480
  6   73        -0.134       80.491       111.198       -5.500       -0.389       80.614        111.577
  6   74         0.652       82.101       112.516       -4.900        0.812       81.825        112.134
  6   75         0.773       81.689       111.700       -5.500        0.513       81.348        111.488
  6   76        -0.151       79.894       112.566       -4.700        0.020       80.194        112.280
  6   77         1.356       81.888       111.717       -5.500        1.048       81.603        111.528
  6   78        -0.984       77.650       116.372       -4.600       -0.784       77.236        116.273
  6   79         1.372       81.683       111.732       -5.300        1.062       81.409        111.543
  6   80         0.140       80.884       111.575       -4.900        0.357       80.624        111.247
  6   81        -1.344       77.526       116.783       -4.400       -1.203       77.110        116.796
  6   82         0.443       80.943       111.800       -4.700        0.395       80.925        112.274
  6   83         0.559       81.162       112.708       -5.200        0.379       80.912        112.354
  6   84        -0.182       80.375       112.231       -5.200       -0.018       80.320        112.656
  6   85        -0.391       80.930       111.633       -5.500       -0.493       81.107        111.993
  6   86         1.046       82.135       112.232       -5.200        1.215       81.919        111.951
  6   87         1.160       82.026       112.321       -5.400        1.300       81.766        111.999
  6   88        -1.405       77.440       115.957       -4.900       -1.017       77.230        115.804
  6   89         0.415       80.506       111.824       -5.400        0.515       80.473        112.277
  6   90         0.709       81.569       111.716       -5.300        0.845       81.231        111.386
  6   91         0.111       80.812       111.146       -5.300       -0.184       80.861        111.513
  6   92         0.591       81.544       111.821       -5.400        0.349       81.198        111.599
  6   93         0.972       81.691       111.904       -5.600        0.680       81.406        111.680
  6   94         0.189       80.403       111.384       -5.500        0.119       80.356        111.843
  6   95         0.120       80.410       111.133       -5.500       -0.112       80.434        111.550
  6   96         0.304       81.218       111.534       -5.200        0.507       81.046        111.190
  6   97        -1.136       79.038       114.211       -4.700       -1.174       79.086        113.774
  6   98         0.868       81.835       112.024       -5.400        0.631       81.522        111.767
  6   99         1.223       81.758       111.597       -5.300        0.943       81.433        111.402
  6   100        -1.147       78.124       114.157       -4.700       -1.069       77.861        113.748
  6   101         1.698       82.067       112.275       -5.000        1.408       81.838        112.016
  6   102         1.391       81.319       111.439       -5.800        1.043       81.012        111.294
  6   103        -0.029       80.586       112.046       -5.400        0.067       80.605        112.481
  6   104         1.051       80.893       111.714       -5.600        1.116       80.867        112.152
  6   105        -0.829       77.948       116.570       -4.000       -0.654       77.537        116.415
  6   106         0.368       80.239       112.167       -5.500        0.586       80.201        111.808
  6   107         0.580       80.678       112.105       -5.200        0.270       80.403        112.020
  6   108        -1.690       77.211       116.519       -4.100       -1.822       76.759        116.550
  6   109         1.547       82.192       112.395       -5.100        1.293       81.924        112.118
  6   110        -0.018       80.830       113.026       -4.700       -0.121       80.702        112.571
  6   111         0.775       81.360       112.662       -5.300        0.573       81.113        112.328
  6   112         0.713       81.147       111.718       -5.400        0.411       80.775        111.612
  6   113        -0.380       77.822       116.667       -4.100       -0.246       77.388        116.626
  6   114         1.568       81.533       112.064       -4.900        1.186       81.843        111.933
  6   115        -1.717       78.461       114.432       -4.800       -1.647       78.105        114.149
  6   116        -1.165       79.484       114.239       -4.400       -1.181       79.531        113.802
  6   117         0.211       79.152       113.689       -4.500        0.109       79.294        113.248
  6   118         1.569       81.514       112.301       -5.100        1.336       81.252        112.037
  6   119         1.037       81.398       111.600       -5.000        0.760       81.062        111.469
  6   120         1.049       81.607       111.762       -5.700        0.795       81.264        111.559
  6   121         0.983       81.600       112.009       -5.600        1.062       81.290        111.650
  6   122         1.131       81.762       111.635       -5.200        0.859       81.438        111.439
  6   123         0.674       81.802       112.369       -5.400        0.830       81.516        112.017
  6   124         0.126       80.380       111.619       -5.700        0.076       80.399        112.084
  6   125         0.159       81.306       112.037       -5.300        0.002       81.455        112.453
  6   126         0.631       82.564       112.643       -5.100        0.790       82.337        112.323
  6   127         0.522       81.344       111.722       -5.200        0.329       80.964        111.522


